T[K]        	1000/T[1/K]  	IDT[ms]     
1.500000E+03	6.666670E-01	4.457640E+00
1.525000E+03	6.557380E-01	3.464190E+00
1.550000E+03	6.451610E-01	2.710590E+00
1.575000E+03	6.349210E-01	2.153840E+00
1.600000E+03	6.250000E-01	1.735650E+00
1.625000E+03	6.153850E-01	1.417610E+00
1.650000E+03	6.060610E-01	1.157090E+00
1.675000E+03	5.970150E-01	9.619260E-01
1.700000E+03	5.882350E-01	8.112240E-01
1.725000E+03	5.797100E-01	6.758300E-01
1.750000E+03	5.714290E-01	5.766850E-01
1.775000E+03	5.633800E-01	4.959740E-01
1.800000E+03	5.555560E-01	4.219530E-01
1.825000E+03	5.479450E-01	3.716880E-01
1.850000E+03	5.405410E-01	3.194450E-01
1.875000E+03	5.333330E-01	2.846030E-01
1.900000E+03	5.263160E-01	2.405150E-01
1.925000E+03	5.194810E-01	2.134020E-01
1.950000E+03	5.128210E-01	1.866570E-01
1.975000E+03	5.063290E-01	1.717340E-01
2.000000E+03	5.000000E-01	1.529500E-01
2.025000E+03	4.938270E-01	1.353940E-01
2.050000E+03	4.878050E-01	1.212520E-01
2.075000E+03	4.819280E-01	1.045790E-01
2.100000E+03	4.761900E-01	9.498130E-02
2.125000E+03	4.705880E-01	8.704590E-02
2.150000E+03	4.651160E-01	7.706950E-02
2.175000E+03	4.597700E-01	0.000000E+00
2.200000E+03	4.545450E-01	0.000000E+00
2.225000E+03	4.494380E-01	0.000000E+00
2.250000E+03	4.444440E-01	0.000000E+00