T[K]        	1000/T[1/K]  	IDT[ms]     
1.500000E+03	6.666670E-01	6.859720E+00
1.525000E+03	6.557380E-01	5.204070E+00
1.550000E+03	6.451610E-01	3.981190E+00
1.575000E+03	6.349210E-01	3.070770E+00
1.600000E+03	6.250000E-01	2.393190E+00
1.625000E+03	6.153850E-01	1.878150E+00
1.650000E+03	6.060610E-01	1.490750E+00
1.675000E+03	5.970150E-01	1.192370E+00
1.700000E+03	5.882350E-01	9.636340E-01
1.725000E+03	5.797100E-01	7.842300E-01
1.750000E+03	5.714290E-01	6.484990E-01
1.775000E+03	5.633800E-01	5.370750E-01
1.800000E+03	5.555560E-01	4.506430E-01
1.825000E+03	5.479450E-01	3.768050E-01
1.850000E+03	5.405410E-01	3.214110E-01
1.875000E+03	5.333330E-01	2.730780E-01
1.900000E+03	5.263160E-01	2.346390E-01
1.925000E+03	5.194810E-01	2.055170E-01
1.950000E+03	5.128210E-01	1.791920E-01
1.975000E+03	5.063290E-01	1.543270E-01
2.000000E+03	5.000000E-01	1.353300E-01
2.025000E+03	4.938270E-01	1.186880E-01
2.050000E+03	4.878050E-01	1.053470E-01
2.075000E+03	4.819280E-01	9.489280E-02
2.100000E+03	4.761900E-01	8.297170E-02
2.125000E+03	4.705880E-01	7.538570E-02
2.150000E+03	4.651160E-01	6.896350E-02
2.175000E+03	4.597700E-01	6.276810E-02
2.200000E+03	4.545450E-01	5.529740E-02
2.225000E+03	4.494380E-01	4.813340E-02
2.250000E+03	4.444440E-01	4.398040E-02