T[K]        	1000/T[1/K]  	IDT[ms]     
1.000000E+03	1.000000E+00	3.783230E+01
1.025000E+03	9.756100E-01	2.514170E+01
1.050000E+03	9.523810E-01	1.760950E+01
1.075000E+03	9.302330E-01	1.216170E+01
1.100000E+03	9.090910E-01	9.183850E+00
1.125000E+03	8.888890E-01	6.248060E+00
1.150000E+03	8.695650E-01	5.102060E+00
1.175000E+03	8.510640E-01	3.205430E+00
1.200000E+03	8.333330E-01	2.407510E+00
1.225000E+03	8.163270E-01	1.826240E+00
1.250000E+03	8.000000E-01	1.346770E+00
1.275000E+03	7.843140E-01	9.411740E-01
1.300000E+03	7.692310E-01	6.072120E-01
1.325000E+03	7.547170E-01	5.114950E-01
1.350000E+03	7.407410E-01	3.642400E-01
1.375000E+03	7.272730E-01	2.912400E-01
1.400000E+03	7.142860E-01	1.707110E-01
1.425000E+03	7.017540E-01	1.817120E-01
1.450000E+03	6.896550E-01	1.207850E-01
1.475000E+03	6.779660E-01	8.244140E-02
1.500000E+03	6.666670E-01	8.694520E-02
1.525000E+03	6.557380E-01	6.966210E-02
1.550000E+03	6.451610E-01	4.057990E-02
1.575000E+03	6.349210E-01	2.960860E-02
1.600000E+03	6.250000E-01	2.627420E-02
1.625000E+03	6.153850E-01	1.776090E-02
1.650000E+03	6.060610E-01	1.774900E-02
1.675000E+03	5.970150E-01	1.624230E-02
1.700000E+03	5.882350E-01	1.423100E-02
1.725000E+03	5.797100E-01	1.121080E-02
1.750000E+03	5.714290E-01	8.727780E-03
1.775000E+03	5.633800E-01	6.913000E-03
1.800000E+03	5.555560E-01	6.333980E-03
1.825000E+03	5.479450E-01	4.718040E-03
1.850000E+03	5.405410E-01	3.193570E-03